#Acq. time (s)=	15
#Accumulations=	1
#Range (cm-¹)=	400...3400
#Windows=	4
#Auto scanning=	Off
#Autofocus=	Off
#AutoExposure=	Off
#Spike filter=	Single accum. (Size=3)
#Delay time (s)=	0
#Binning=	1
#Readout mode=	Signal
#DeNoise=	Standard
#ICS correction=	Off
#Dark correction=	Off
#Inst. Process=	Off
#Detector Gain=	Best Dynamic Range
#Detector ADC=	1 MHz       
#Detector temperature (°C)=	-59.98
#Instrument=	XploRA Plus
#Detector=	Syncerity
#Objective=	x20
#Grating=	1200 gr/mm
#Filter=	10%
#Laser (nm)=	785 
#Slit (µm)=	100 
#Hole (µm)=	100 
#Fiber=	Off
#E-Cal_Neon=	0
#StageXY=	Marzhauser
#StageZ=	Marzhauser
#X (µm)=	0
#Y (µm)=	0
#Z (µm)=	-2961.75
#Spectral res.(cm-¹)=	3.2
#Full time(mm:ss)=	1:27
#AC=	Calibrated 2025-09-30 09:39
#Project=	Sydney
#Sample=	PET
#Site=	The
#Title=	Q2_emp_785_1200_20x_10%_15s_1t_2
#Remark=	
#Date=	30.09.2025 10:35
#Acquired=	30.09.2025 10:35:40
#AxisType[0]=Intens
#AxisUnit[0]=Cnt
#AxisType[1]=Spectr
#AxisUnit[1]=1/cm
400.069	85.7087
401.28	81.697
402.49	80.6985
403.702	81.5986
404.912	82.7221
406.122	84.6545
407.331	86.6108
408.54	88.2906
409.749	89.7244
410.958	90.9038
412.166	91.7462
413.374	92.2311
414.583	92.1657
415.79	92.3683
416.997	93.2129
418.204	93.346
419.411	93.3452
420.617	92.7476
421.823	92.0174
423.028	89.0943
424.234	87.437
425.439	84.7256
426.644	82.2868
427.848	79.448
429.052	79.2438
430.257	80.942
431.46	82.9441
432.663	84.102
433.866	82.1705
435.068	81.7589
436.271	81.5855
437.473	81.7178
438.674	81.9126
439.876	82.099
441.077	82.4327
442.278	82.8331
443.479	83.22
444.679	83.4501
445.879	83.2205
447.079	82.7127
448.277	82.2815
449.477	81.9539
450.675	81.7464
451.874	81.7833
453.073	81.8089
454.27	81.7379
455.468	81.5794
456.665	81.0549
457.862	79.8709
459.058	78.6018
460.254	77.3784
461.451	76.2542
462.646	75.0473
463.842	73.7323
465.037	72.9602
466.232	71.6488
467.426	72.2464
468.62	73.0526
469.814	74.344
471.008	76.1022
472.202	78.7724
473.394	81.6609
474.587	83.5316
475.779	85.6201
476.972	85.9116
478.163	84.9973
479.355	82.1773
480.546	77.5092
481.737	69.6994
482.927	65.9932
484.117	73.7849
485.308	78.3688
486.498	442
487.687	3948
488.876	488
490.065	45.1492
491.253	67.9244
492.442	58.7893
493.63	52.0556
494.817	60.984
496.005	63.8612
497.191	55.3771
498.379	57.0481
499.565	57.9823
500.751	58.2595
501.936	58.5264
503.122	59.9544
504.307	61.1462
505.492	61.3437
506.677	62.4588
507.861	63.5284
509.045	64.2139
510.229	64.5879
511.412	65.0733
512.596	65.682
513.778	66.4675
514.96	67.5234
516.142	67.6647
517.325	67.6914
518.507	67.3742
519.688	67.0934
520.868	67.1028
522.049	67.0488
523.23	67.0505
524.41	67.0498
525.589	67.1409
526.769	67.2387
527.948	67.4745
529.127	67.6598
530.306	67.7519
531.484	67.914
532.662	68.0723
533.84	68.4622
535.018	69.7421
536.195	71.0989
537.371	71.7624
538.548	71.4527
539.724	71.2229
540.9	71.0676
542.076	71.4105
543.251	71.8391
544.426	72.0726
545.601	72.4838
546.775	72.9439
547.949	73.3576
549.123	73.7603
550.297	74.1308
551.47	74.4197
552.643	74.6622
553.815	74.7509
554.988	74.8069
556.16	74.6724
557.332	74.3915
558.503	74.0257
559.674	73.6095
560.845	73.0104
562.015	72.0633
563.186	71.1657
564.356	70.2731
565.525	70.357
566.695	70.7166
567.864	71.684
569.032	72.3455
570.201	72.2805
571.369	72.0406
572.538	71.8263
573.705	71.068
574.872	70.1742
576.039	69.1397
577.206	68.0454
578.372	67.0552
579.538	66.243
580.704	65.6661
581.87	65.5157
583.034	66.5536
584.2	67.9545
585.364	69.8096
586.529	71.0342
587.693	71.5352
588.856	71.9514
590.02	72.3506
591.183	72.7155
592.346	73.5451
593.508	74.3639
594.67	74.9975
595.832	75.4734
596.994	75.5302
598.155	75.3123
599.317	74.9097
600.477	74.1498
601.637	73.2093
602.798	71.9993
603.958	71.3838
605.117	71.4373
606.277	72.5756
607.436	74.3517
608.594	76.6163
609.752	77.6708
610.911	79.5083
612.069	86.7631
613.226	94.6493
614.383	102.38
615.54	110.251
616.697	117.642
617.853	125.651
619.009	130.451
620.164	130.195
621.32	127.812
622.475	122.436
623.63	115.192
624.784	99.5393
625.939	91.3129
627.092	83.764
628.247	77.1293
629.4	71.0901
630.552	68.5611
631.705	64.3327
632.857	60.2379
634.01	62.2083
635.162	62.458
636.313	62.7261
637.465	62.5511
638.615	62.0421
639.766	61.109
640.916	60.3148
642.066	60.2641
643.217	60.9162
644.366	61.7642
645.515	61.1385
646.664	61.1919
647.813	61.4533
648.961	61.7222
650.109	61.9773
651.256	62.203
652.404	62.2807
653.551	62.349
654.698	62.141
655.845	61.8378
656.991	61.4882
658.136	61.0089
659.282	60.4948
660.427	59.8898
661.573	59.2686
662.718	58.6082
663.862	57.9549
665.006	57.2532
666.15	56.6479
667.293	56.214
668.437	56.5294
669.58	56.9708
670.723	57.715
671.865	58.8153
673.007	60.4629
674.149	62.2068
675.291	63.8537
676.432	64.8997
677.572	66.1765
678.713	67.232
679.853	67.8763
680.994	67.8497
682.133	67.1644
683.273	66.1484
684.412	64.8228
685.551	63.586
686.689	62.0118
687.828	60.4536
688.966	59.0139
690.104	58.3198
691.241	57.7334
692.378	57.3729
693.515	57.2838
694.652	57.2805
695.788	57.1692
696.924	57.4839
698.059	58.2107
699.195	59.5172
700.33	62.029
701.465	63.6133
702.599	63.5619
703.733	62.8054
704.867	61.7316
706.001	60.741
707.134	59.0152
708.267	57.2178
709.399	56.0706
710.533	55.2715
711.664	54.8706
712.796	54.8627
713.927	55.28
715.059	58.5845
716.189	58.9489
717.321	58.336
718.451	58.0473
719.581	57.8075
720.711	57.5884
721.84	57.4783
722.969	57.4115
724.098	57.3632
725.227	57.4328
726.355	57.7058
727.483	58.2295
728.611	59.1616
729.739	60.5685
730.866	62.1286
731.992	64.7625
733.119	67.7142
734.246	70.7653
735.372	73.8124
736.497	76.2198
737.622	78.6053
738.747	80.7826
739.872	82.8762
740.996	84.9094
742.121	86.8315
743.245	88.6685
744.369	90.0862
745.492	90.813
746.615	90.922
747.738	90.2877
748.86	88.146
749.982	86.1768
751.104	84.2104
752.226	81.6891
753.347	79.0896
754.468	76.7348
755.588	74.7029
756.709	72.795
757.829	71.2223
758.949	70.0169
760.069	69.381
761.188	69.2697
762.307	69.6125
763.425	70.1863
764.544	71.0309
765.662	71.8513
766.78	73.0298
767.897	74.5617
769.015	76.3015
770.132	76.8367
771.248	77.1892
772.365	77.4802
773.481	76.9143
774.596	76.052
775.712	75.2191
776.827	74.7238
777.942	74.2373
779.056	73.8523
780.171	73.5298
781.285	72.8118
782.398	71.8074
783.512	71.9563
784.625	72.4802
785.738	72.9823
786.85	73.0197
787.963	72.6409
789.074	71.8758
790.186	70.6444
791.298	69.8983
792.408	69.1195
793.52	67.224
794.63	65.2352
795.741	63.4739
796.85	61.9058
797.96	60.4587
799.07	59.3141
800.178	58.4893
801.287	58.0052
802.396	57.6125
803.504	58.1747
804.612	59.0242
805.72	59.9978
806.827	60.534
807.933	60.8093
809.04	61.0187
810.147	60.9981
811.254	60.8961
812.359	60.7199
813.464	60.2832
814.57	59.8262
815.675	59.3445
816.78	58.9349
817.884	58.5656
818.988	58.6815
820.092	58.9097
821.195	59.3941
822.299	59.9931
823.402	61.2642
824.505	62.7121
825.607	64.0432
826.709	64.6311
827.811	64.3076
828.912	63.5509
830.013	62.4971
831.115	61.3238
832.215	60.2044
833.315	59.1183
834.416	58.023
835.515	56.9311
836.615	55.9481
837.714	55.0048
838.813	54.0423
839.912	53.1093
841.01	52.3241
842.109	51.5795
843.207	50.9436
844.303	50.6651
845.401	50.8784
846.498	50.9834
847.594	51.0679
848.691	50.6929
849.787	50.254
850.883	49.9219
851.978	49.7633
853.073	49.9721
854.168	50.3975
855.263	51.213
856.357	51.9998
857.451	52.4547
858.545	51.9549
859.638	51.2704
860.731	50.2692
861.824	49.0202
862.917	47.7384
864.009	46.4372
865.101	45.5448
866.192	44.642
867.284	43.9786
868.375	44.2406
869.466	44.3564
870.557	44.7145
871.647	45.2962
872.737	46.02
873.827	46.754
874.916	47.3398
876.005	48.0438
877.094	48.6936
878.182	49.0912
879.271	49.0721
880.359	48.4605
881.446	47.7341
882.534	47.0955
883.621	46.4209
884.708	46.0338
885.795	45.3996
886.88	44.4704
887.967	43.6254
889.052	42.78
890.138	42.0451
891.223	41.7911
892.307	42.1918
893.392	43.1868
894.476	44.4298
895.56	45.6349
896.644	46.7355
897.727	47.2932
898.811	47.5678
899.893	47.6961
900.975	47.5494
902.058	46.4278
903.14	45.2766
904.222	44.2398
905.303	42.9975
906.384	41.7536
907.465	40.6531
908.546	39.7089
909.625	38.8461
910.705	38.184
911.785	37.6375
912.864	37.6437
913.943	38.0097
915.022	38.538
916.101	39.2501
917.179	39.9001
918.257	40.3058
919.335	40.6168
920.412	40.8601
921.489	40.8825
922.566	40.8318
923.642	40.7072
924.719	40.2266
925.795	39.5691
926.87	38.8255
927.945	38.0264
929.021	37.2456
930.095	37.0655
931.17	36.5869
932.244	36.2728
933.318	35.9872
934.391	35.7787
935.465	35.9965
936.538	35.9832
937.611	35.8512
938.683	35.71
939.756	35.5565
940.827	35.3403
941.899	35.2009
942.971	35.0782
944.042	35.0246
945.112	35.0215
946.183	35.1232
947.253	35.3784
948.323	35.6664
949.392	36.2985
950.462	36.9143
951.531	37.7258
952.599	37.3077
953.668	36.9118
954.737	37.229
955.805	37.4926
956.872	37.5599
957.939	37.5219
959.007	37.4869
960.073	37.6275
961.139	37.2956
962.206	38.1619
963.272	39.4939
964.338	41.0161
965.403	42.5309
966.468	45.5099
967.532	46.9843
968.597	47.4897
969.661	46.7012
970.725	44.982
971.789	42.71
972.852	40.9508
973.915	39.806
974.978	39.8299
976.041	40.5366
977.103	44.8909
978.165	47.6996
979.227	47.8691
980.288	48.4237
981.349	49.698
982.41	51.6313
983.471	54.221
984.531	57.4898
985.591	61.3684
986.65	65.913
987.71	71.1003
988.769	77.0459
989.828	83.6789
990.886	91.1717
991.945	99.5309
993.003	108.067
994.06	121.353
995.117	138.203
996.174	158.899
997.232	184.608
998.288	273.672
999.345	340.849
1000.4	378.571
1001.46	411.686
1002.51	363.244
1003.57	288.358
1004.62	203.279
1005.68	145.816
1006.73	115.001
1007.78	89.6853
1008.84	78.4425
1009.89	62.748
1010.94	55.5328
1012	51.0162
1013.05	52.1023
1014.1	58.1916
1015.15	46.5765
1016.21	44.017
1017.26	44.6021
1018.31	45.6768
1019.36	46.2121
1020.41	49.6165
1021.46	52.4117
1022.51	58.0182
1023.56	61.1559
1024.61	69.8139
1025.66	77.828
1026.71	87.6591
1027.76	98.3684
1028.81	111.39
1029.85	122.458
1030.9	126.061
1031.95	124.914
1033	122.47
1034.04	116.798
1035.09	102.01
1036.14	91.9484
1037.18	80.4364
1038.23	70.8393
1039.27	65.1016
1040.32	58.337
1041.36	51.8805
1042.41	48.199
1043.45	44.8674
1044.5	42.2236
1045.54	40.7472
1046.58	39.6481
1047.63	38.9107
1048.67	38.2305
1049.71	37.6441
1050.75	37.2353
1051.8	36.8754
1052.84	36.6077
1053.88	36.3274
1054.92	36.2156
1055.96	36.0124
1057	36.6967
1058.04	37.9038
1059.08	39.0328
1060.12	40.0034
1061.16	40.3257
1062.2	40.6576
1063.24	40.7169
1064.28	40.7224
1065.32	40.5584
1066.36	40.3369
1067.4	40.1251
1068.43	39.8861
1069.47	39.7868
1070.51	39.6002
1071.54	39.6997
1072.58	39.8286
1073.62	39.7448
1074.65	39.622
1075.69	39.2551
1076.72	39.1439
1077.76	39.6618
1078.79	40.1793
1079.83	40.665
1080.86	41.1968
1081.9	41.2247
1082.93	40.7155
1083.96	39.9853
1085	39.6156
1086.03	39.384
1087.06	39.5869
1088.1	41.7178
1089.13	41.8021
1090.16	41.7827
1091.19	41.4775
1092.22	40.8609
1093.25	39.3225
1094.28	38.8173
1095.31	38.7539
1096.34	39.2311
1097.37	40.3525
1098.4	41.7104
1099.43	42.9719
1100.46	43.65
1101.49	43.7183
1102.52	43.4666
1103.55	43.0232
1104.57	42.6822
1105.6	42.0898
1106.63	41.2453
1107.66	37.5904
1108.68	35.8299
1109.71	34.1902
1110.74	32.2281
1111.76	29.8236
1112.79	27.4067
1113.81	25.5496
1114.84	24.4586
1115.86	23.7266
1116.89	23.4409
1117.91	23.1563
1118.93	23.6771
1119.96	24.5494
1120.98	25.5941
1122	26.5725
1123.03	27.8094
1124.05	28.9744
1125.07	29.9844
1126.09	30.747
1127.12	31.0593
1128.14	30.6322
1129.16	29.8736
1130.18	28.9991
1131.2	27.9925
1132.22	27.1976
1133.24	26.6267
1134.26	26.2965
1135.28	26.0812
1136.3	26.2479
1137.32	28.4065
1138.34	28.6135
1139.35	28.9556
1140.37	29.3367
1141.39	29.8121
1142.41	30.231
1143.42	30.7772
1144.44	31.3112
1145.46	31.749
1146.47	32.3896
1147.49	33.5272
1148.51	35.8658
1149.52	38.4288
1150.54	41.395
1151.55	44.91
1152.57	48.0784
1153.58	50.2846
1154.6	51.7802
1155.61	52.8207
1156.62	52.5972
1157.64	51.5783
1158.65	50.14
1159.66	48.8196
1160.68	47.5078
1161.69	46.0868
1162.7	44.7247
1163.71	45.2577
1164.72	43.3171
1165.73	41.752
1166.74	40.6032
1167.75	40.0921
1168.76	39.4651
1169.77	37.7471
1170.78	41.1085
1171.79	46.5872
1172.8	45.5027
1173.81	57.4716
1174.82	254
1175.83	646
1176.84	48.4586
1177.84	49.3322
1178.85	65.4265
1179.86	62.9103
1180.87	66.3517
1181.87	74.9942
1182.88	75.8082
1183.89	67.3672
1184.89	69.2442
1185.9	70.3529
1186.9	69.5761
1187.91	70.0047
1188.91	69.7536
1189.92	69.0232
1190.92	66.8788
1191.92	66.6816
1192.93	67.0108
1193.93	67.6292
1194.93	68.0869
1195.94	68.6065
1196.94	69.2874
1197.94	70.0852
1198.94	71.749
1199.95	73.5255
1200.95	73.9999
1201.95	73.6058
1202.95	72.2928
1203.95	70.3325
1204.95	67.7046
1205.95	64.4608
1206.95	60.9425
1207.95	57.0771
1208.95	52.486
1209.95	48.204
1210.95	44.7418
1211.95	41.9663
1212.94	39.7442
1213.94	37.9837
1214.94	36.5579
1215.94	35.1013
1216.93	34.871
1217.93	34.9847
1218.93	35.1423
1219.92	35.17
1220.92	35.2466
1221.91	35.3397
1222.91	35.4391
1223.9	35.5435
1224.9	35.7509
1225.89	35.8425
1226.89	35.8488
1227.88	35.8696
1228.88	35.8531
1229.87	35.7933
1230.86	36.1198
1231.85	36.511
1232.85	36.8854
1233.84	37.1326
1234.83	37.0353
1235.82	36.8981
1236.82	36.3961
1237.81	35.8468
1238.8	35.1607
1239.79	34.4227
1240.78	33.5623
1241.77	32.5662
1242.76	31.5614
1243.75	30.584
1244.74	29.967
1245.73	29.6827
1246.72	30.51
1247.7	31.3018
1248.69	31.8367
1249.68	32.4097
1250.67	33.1588
1251.66	33.8437
1252.64	34.6037
1253.63	35.3627
1254.62	36.135
1255.6	36.6902
1256.59	36.8906
1257.57	37.4455
1258.56	37.8695
1259.54	37.9268
1260.53	37.6694
1261.51	37.4631
1262.5	37.2985
1263.48	37.6112
1264.47	39.2393
1265.45	40.8634
1266.43	41.9627
1267.42	42.7592
1268.4	43.599
1269.38	44.1638
1270.36	44.5382
1271.35	44.5978
1272.33	44.212
1273.31	42.8823
1274.29	41.4726
1275.27	40.0096
1276.25	39.0771
1277.23	37.9832
1278.21	37.0558
1279.19	35.9913
1280.17	35.1068
1281.15	34.4442
1282.13	34.6447
1283.11	35.3039
1284.09	36.1016
1285.06	37.0012
1286.04	38.0523
1287.02	39.2223
1288	40.4665
1288.97	41.8515
1289.95	43.525
1290.93	45.1211
1291.9	46.5845
1292.88	47.8886
1293.85	48.8338
1294.83	48.8737
1295.8	48.7006
1296.78	48.2946
1297.75	47.7201
1298.73	46.744
1299.7	46.3111
1300.68	46.5077
1301.65	46.9001
1302.62	47.2535
1303.6	47.531
1304.57	47.8012
1305.54	48.0052
1306.51	48.1852
1307.48	48.2843
1308.46	48.3606
1309.43	48.2633
1310.4	48.2564
1311.37	47.9484
1312.34	47.6456
1313.31	47.1513
1314.28	46.6207
1315.25	45.9351
1316.22	45.1771
1317.19	44.4277
1318.16	43.6962
1319.13	42.9586
1320.09	42.2891
1321.06	41.6098
1322.03	41.0471
1323	40.8323
1323.96	40.7591
1324.93	40.9211
1325.9	41.073
1326.86	41.2433
1327.83	41.4257
1328.8	41.6538
1329.76	41.8602
1330.73	42.0523
1331.69	42.0704
1332.66	42.2282
1333.62	42.2357
1334.59	42.2801
1335.55	42.2028
1336.51	42.1996
1337.48	42.0632
1338.44	42.1727
1339.4	42.6468
1340.37	43.144
1341.33	43.5277
1342.29	43.383
1343.25	42.9915
1344.21	42.1488
1345.17	40.9745
1346.14	39.6117
1347.1	38.091
1348.06	36.1013
1349.02	34.0529
1349.98	33.1752
1350.94	31.8064
1351.9	30.3347
1352.85	29.0787
1353.81	28.2126
1354.77	27.8578
1355.73	27.825
1356.69	28.1454
1357.65	28.7242
1358.6	29.1266
1359.56	29.083
1360.52	28.9691
1361.47	28.8349
1362.43	28.5687
1363.39	28.3989
1364.34	28.3492
1365.3	28.3225
1366.25	28.3441
1367.21	28.4613
1368.16	28.5854
1369.12	28.9261
1370.07	29.3854
1371.03	29.832
1371.98	30.1937
1372.93	30.6055
1373.89	30.8681
1374.84	30.4901
1375.79	29.8488
1376.74	28.6603
1377.7	27.1395
1378.65	25.2928
1379.6	22.5889
1380.55	20.1104
1381.5	18.7186
1382.45	17.7843
1383.4	17.381
1384.35	17.5021
1385.3	18.0278
1386.25	19.032
1387.2	20.0925
1388.15	21.2084
1389.1	21.4246
1390.05	21.5004
1391	21.5288
1391.94	21.8533
1392.89	21.6943
1393.84	21.5516
1394.79	21.4747
1395.73	21.5101
1396.68	21.5826
1397.63	21.5938
1398.57	22.0613
1399.52	22.6611
1400.46	23.213
1401.41	23.8051
1402.36	24.3626
1403.3	24.862
1404.24	25.2243
1405.19	25.5496
1406.13	25.6866
1407.08	25.7368
1408.02	25.8256
1408.96	25.9072
1409.91	26.1537
1410.85	26.0296
1411.79	25.7213
1412.73	25.3614
1413.68	24.9244
1414.62	24.3183
1415.56	23.6056
1416.5	22.9469
1417.44	22.3833
1418.38	22.0769
1419.32	21.7722
1420.26	21.42
1421.2	21.1164
1422.14	21.0573
1423.08	21.4482
1424.02	22.3317
1424.96	23.0319
1425.9	23.7957
1426.83	24.574
1427.77	25.5219
1428.71	26.3032
1429.65	26.9996
1430.58	27.5986
1431.52	27.9014
1432.46	28.1409
1433.39	28.4231
1434.33	28.6932
1435.26	29.1837
1436.2	29.7495
1437.14	30.4475
1438.07	31.237
1439.01	32.1276
1439.94	33.1613
1440.87	34.2904
1441.81	35.6276
1442.74	37.1723
1443.67	39.2735
1444.61	41.5313
1445.54	43.6839
1446.47	45.2573
1447.4	46.2252
1448.34	46.7761
1449.27	46.8497
1450.2	46.274
1451.13	45.0196
1452.06	42.9788
1452.99	40.4621
1453.92	37.5202
1454.85	34.4986
1455.78	31.9886
1456.71	29.75
1457.64	27.466
1458.57	25.1755
1459.5	23.2021
1460.43	21.1628
1461.36	19.3072
1462.29	17.8703
1463.21	17.0157
1464.14	16.6508
1465.07	16.6544
1465.99	17.0888
1466.92	17.9526
1467.85	18.64
1468.77	19.0853
1469.7	19.4448
1470.63	19.7506
1471.55	20.0409
1472.48	20.3606
1473.4	20.6952
1474.32	21.0552
1475.25	21.2837
1476.17	21.4712
1477.1	21.7229
1478.02	21.5578
1478.94	20.9862
1479.87	20.2058
1480.79	19.2801
1481.71	18.3939
1482.63	17.8701
1483.56	18.3076
1484.48	19.0777
1485.4	19.7789
1486.32	20.4113
1487.24	21.1082
1487.45	21.2768
1488.41	22.0656
1489.36	22.9156
1490.32	23.9974
1491.28	25.6884
1492.23	27.4543
1493.19	29.2466
1494.14	30.9503
1495.09	32.2538
1496.05	32.6594
1497	32.7338
1497.96	32.6415
1498.91	32.3848
1499.86	32.0095
1500.82	31.8312
1501.77	31.5856
1502.72	31.2978
1503.67	31.0414
1504.63	30.6546
1505.58	30.1412
1506.53	29.5813
1507.48	28.7244
1508.43	27.9682
1509.38	27.3259
1510.33	27.1352
1511.28	27.2875
1512.23	27.4951
1513.18	27.7298
1514.13	27.8746
1515.08	28.1811
1516.03	28.5635
1516.98	28.7764
1517.93	29.5346
1518.88	30.3717
1519.83	31.2207
1520.78	32.0742
1521.72	32.9016
1522.67	33.7123
1523.62	34.5339
1524.57	35.0985
1525.51	35.5052
1526.46	35.7267
1527.41	35.7071
1528.35	35.6903
1529.3	35.554
1530.24	35.2778
1531.19	34.891
1532.14	34.4041
1533.08	33.8274
1534.03	33.1486
1534.97	32.4205
1535.92	31.7009
1536.86	30.8494
1537.8	29.8562
1538.75	28.8306
1539.69	27.7681
1540.63	26.6855
1541.58	25.568
1542.52	24.4672
1543.46	23.2785
1544.41	22.1378
1545.35	21.1293
1546.29	20.4312
1547.23	20.2506
1548.17	20.2253
1549.11	21.0038
1550.05	21.7981
1551	22.6454
1551.94	23.5845
1552.88	24.3437
1553.82	24.7025
1554.76	24.9823
1555.7	25.3419
1556.64	25.7447
1557.57	26.2622
1558.51	27.3789
1559.45	28.4123
1560.39	29.3644
1561.33	28.9855
1562.27	28.3876
1563.2	27.7748
1564.14	27.3711
1565.08	26.888
1566.02	26.3838
1566.95	25.9991
1567.89	25.6239
1568.83	25.2847
1569.76	25.0874
1570.7	24.9917
1571.63	25.0518
1572.57	25.2597
1573.51	25.4819
1574.44	26.3548
1575.37	27.453
1576.31	28.487
1577.24	29.4957
1578.18	30.4229
1579.11	30.7656
1580.05	31.1469
1580.98	31.2771
1581.91	31.2504
1582.84	31.0577
1583.78	30.7175
1584.71	30.3018
1585.64	29.8351
1586.57	29.3428
1587.51	28.961
1588.44	28.5503
1589.37	28.5538
1590.3	29.2547
1591.23	30.617
1592.16	31.9324
1593.09	32.2059
1594.02	35.1212
1594.95	37.9218
1595.88	41.8865
1596.81	46.9465
1597.74	53.9536
1598.67	57.5236
1599.6	60.1288
1600.53	61.5765
1601.46	61.8834
1602.38	60.8622
1603.31	58.6578
1604.24	52.8354
1605.17	48.0923
1606.1	43.8712
1607.02	40.2016
1607.95	36.7693
1608.88	34.027
1609.8	31.3623
1610.73	31.5626
1611.65	29.8382
1612.58	28.3084
1613.5	27.1317
1614.43	26.3139
1615.36	25.5518
1616.28	25.6507
1617.2	26.1681
1618.13	26.7059
1619.05	26.4793
1619.98	25.8357
1620.9	24.8925
1621.82	23.5934
1622.75	21.8534
1623.67	20.3073
1624.59	19.7841
1625.51	19.3715
1626.44	19.162
1627.36	19.0978
1628.28	18.7874
1629.2	18.4425
1630.12	18.2545
1631.04	18.2865
1631.97	18.6198
1632.89	19.2804
1633.81	20.0398
1634.73	21.2281
1635.65	22.2936
1636.57	22.948
1637.49	23.0077
1638.41	22.5432
1639.32	21.512
1640.24	20.6821
1641.16	20.2864
1642.08	20.0147
1643	19.7048
1643.92	19.4373
1644.83	18.9642
1645.75	18.2882
1646.67	17.6993
1647.58	17.193
1648.5	19.205
1649.42	19.788
1650.33	20.0803
1651.25	19.9382
1652.17	19.4919
1653.08	18.7666
1654	17.5941
1654.91	16.4964
1655.83	15.5395
1656.74	15.724
1657.66	16.7024
1658.57	17.9434
1659.48	19.2954
1660.4	20.1592
1661.31	20.9019
1662.23	21.5158
1663.14	21.9088
1664.05	22.0224
1664.96	21.6867
1665.88	19.7747
1666.79	19.0296
1667.7	18.4421
1668.61	17.8838
1669.52	16.5189
1670.43	15.113
1671.35	13.7748
1672.26	12.5235
1673.17	11.443
1674.08	10.702
1674.99	10.2817
1675.9	9.88089
1676.81	10.1122
1677.72	10.3618
1678.63	10.4902
1679.53	10.5006
1680.44	9.40507
1681.35	8.11965
1682.26	6.83691
1683.17	5.57664
1684.08	5.00148
1684.98	4.84064
1685.89	4.88704
1686.8	5.32026
1687.71	5.83513
1688.61	6.41483
1689.52	6.83095
1690.42	7.29678
1691.33	7.76705
1692.24	8.10438
1693.14	8.34646
1694.05	8.49898
1694.95	8.71659
1695.86	8.82482
1696.76	8.79028
1697.67	8.66094
1698.57	8.07871
1699.47	6.81751
1700.38	5.78757
1701.28	4.81842
1702.19	4.1164
1703.09	3.48344
1703.99	3.04627
1704.89	2.75187
1705.8	2.53179
1706.7	2.42262
1707.6	2.41005
1708.5	2.42158
1709.4	2.61314
1710.3	2.59847
1711.21	3.25933
1712.11	3.9511
1713.01	4.59281
1713.91	5.2613
1714.81	5.80722
1715.71	6.25421
1716.61	5.88232
1717.51	5.71431
1718.41	5.33015
1719.31	4.80585
1720.2	4.14914
1721.1	3.34497
1722	2.52356
1722.9	1.57315
1723.8	0.572848
1724.69	-0.796208
1725.59	-2.00593
1726.49	-3.12641
1727.39	-3.11823
1728.28	-3.19075
1729.18	-3.03459
1730.08	-2.23583
1730.97	-1.3171
1731.87	-0.179181
1732.76	0.967915
1733.66	2.05043
1734.55	2.68713
1735.45	3.12937
1736.34	3.40259
1737.24	3.43586
1738.13	3.26772
1739.03	2.88232
1739.92	2.30289
1740.81	1.58095
1741.71	0.60359
1742.6	0.220211
1743.49	0.432991
1744.38	0.49279
1745.28	0.545119
1746.17	0.480493
1747.06	0.312192
1747.95	-0.0788952
1748.84	-0.494563
1749.74	-0.946792
1750.63	-1.42973
1751.52	-1.92121
1752.41	-2.3837
1753.3	-2.81859
1754.19	-3.21802
1755.08	-3.49609
1755.97	-3.65934
1756.86	-3.77567
1757.75	-3.88163
1758.64	-3.94251
1759.53	-3.90396
1760.41	-3.80643
1761.3	-3.59535
1762.19	-3.34332
1763.08	-2.96811
1763.97	-2.55678
1764.85	-1.901
1765.74	-1.14172
1766.63	-0.258065
1767.51	0.0649689
1768.4	-0.842632
1769.29	-1.50029
1770.17	-2.0261
1771.06	-2.53622
1771.95	-3.01909
1772.83	-3.35807
1773.72	-3.99866
1774.6	-4.62157
1775.49	-4.81559
1776.37	-4.2821
1777.25	-3.66743
1778.14	-2.93793
1779.02	-2.0374
1779.91	-1.14134
1780.79	-0.379671
1781.67	0.386981
1782.56	0.960766
1783.44	1.18294
1784.32	1.26339
1785.2	1.05562
1786.09	0.694548
1786.97	0.223197
1787.85	-0.309377
1788.73	-0.910779
1789.61	-1.52668
1790.49	-2.19454
1791.37	-2.82772
1792.25	-3.34096
1793.13	-3.8706
1794.01	-4.39504
1794.89	-4.81204
1795.77	-5.16622
1796.65	-5.61292
1797.53	-5.75424
1798.41	-5.81676
1799.29	-5.82142
1800.17	-5.72334
1801.05	-5.85889
1801.92	-6.14369
1802.8	-6.90195
1803.68	-7.40184
1804.56	-7.81775
1805.43	-8.20495
1806.31	-8.40693
1807.19	-8.51337
1808.06	-8.36257
1808.94	-8.22674
1809.82	-7.65073
1810.69	-7.02645
1811.57	-6.20755
1812.44	-5.2509
1813.32	-4.24646
1814.19	-3.31457
1815.07	-2.41042
1815.94	-1.91039
1816.81	-1.5059
1817.69	-1.81891
1818.56	-2.39614
1819.44	-2.98278
1820.31	-3.57545
1821.18	-4.1086
1822.05	-4.67264
1822.93	-4.86726
1823.8	-5.16542
1824.67	-5.48862
1825.54	-5.48229
1826.42	-5.37579
1827.29	-5.26836
1828.16	-5.07527
1829.03	-4.89445
1829.9	-4.699
1830.77	-4.59918
1831.64	-4.57593
1832.51	-4.5109
1833.38	-4.51548
1834.25	-4.64713
1835.12	-4.85421
1835.99	-5.04475
1836.86	-5.05393
1837.73	-5.24021
1838.6	-5.09615
1839.46	-4.82992
1840.33	-4.6201
1841.2	-4.35135
1842.07	-4.10503
1842.94	-3.78047
1843.8	-3.50177
1844.67	-3.29938
1845.54	-3.10267
1846.4	-2.97495
1847.27	-3.15634
1848.14	-3.1766
1849	-3.29365
1849.87	-3.40565
1850.73	-3.62023
1851.6	-3.81243
1852.46	-3.97321
1853.33	-4.0799
1854.19	-4.51303
1855.06	-4.95198
1855.92	-5.40449
1856.78	-5.86841
1857.65	-6.31154
1858.51	-6.68843
1859.37	-6.97821
1860.24	-6.73673
1861.1	-6.55139
1861.96	-6.14931
1862.82	-5.64829
1863.69	-5.10773
1864.55	-4.55745
1865.41	-4.05385
1866.27	-3.64026
1867.13	-3.26766
1867.99	-3.35635
1868.85	-3.47435
1869.71	-3.82628
1870.58	-4.34643
1871.44	-4.90421
1872.3	-5.70386
1873.16	-6.69986
1874.01	-8.06303
1874.87	-10.0005
1875.73	-14.0633
1876.59	-14.1087
1877.45	-13.667
1878.31	-12.6431
1879.17	-10.9568
1880.02	-9.21144
1880.88	-7.55099
1881.74	-6.27457
1882.6	-5.46116
1883.45	-5.09054
1884.31	-5.16233
1885.17	-5.75149
1886.02	-9.04061
1886.88	-9.17328
1887.73	-9.29192
1888.59	-9.20965
1889.45	-9.02949
1890.3	-8.90756
1891.16	-8.80847
1892.01	-8.25636
1892.86	-7.69336
1893.72	-7.09566
1894.57	-6.52613
1895.43	-6.04505
1896.28	-5.56077
1897.13	-5.26731
1897.99	-5.09744
1898.84	-4.96884
1899.69	-5.19978
1900.54	-5.41279
1901.4	-5.65829
1902.25	-5.91929
1903.1	-6.30564
1903.95	-6.38397
1904.8	-6.44184
1905.66	-6.0007
1906.51	-5.81479
1907.36	-5.95157
1908.21	-5.93977
1909.06	-6.21699
1909.91	-6.49713
1910.76	-6.91208
1911.61	-7.29376
1912.46	-7.67537
1913.31	-7.61091
1914.15	-6.88732
1915	-6.55252
1915.85	-6.79696
1916.7	-7.13558
1917.55	-7.45935
1918.4	-8.07301
1919.24	-8.8201
1920.09	-9.38967
1920.94	-9.83101
1921.78	-10.0678
1922.63	-10.1753
1923.48	-10.1124
1924.32	-10.024
1925.17	-9.94377
1926.02	-9.81328
1926.86	-9.39733
1927.71	-8.90071
1928.55	-8.31717
1929.4	-7.72482
1930.24	-7.07817
1931.09	-6.43114
1931.93	-5.83428
1932.77	-5.23008
1933.62	-4.71836
1934.46	-4.32776
1935.3	-4.18764
1936.15	-4.07268
1936.99	-3.8425
1937.83	-3.70552
1938.68	-3.60708
1939.52	-3.67839
1940.36	-4.12981
1941.2	-4.75746
1942.04	-5.72246
1942.89	-6.55376
1943.73	-7.30122
1944.57	-7.94498
1945.41	-8.2381
1946.25	-8.3376
1947.09	-8.49162
1947.93	-8.74949
1948.77	-9.4062
1949.61	-10.5287
1950.45	-11.4568
1951.29	-12.0088
1952.13	-12.0487
1952.96	-11.7987
1953.8	-10.9616
1954.64	-9.94995
1955.48	-8.8939
1956.32	-7.75481
1957.15	-7.57285
1957.99	-7.73936
1958.83	-7.98047
1959.67	-8.22087
1960.5	-8.46701
1961.34	-8.52471
1962.18	-8.58471
1963.01	-8.65399
1963.85	-8.67014
1964.68	-8.68372
1965.52	-8.72687
1966.35	-8.68278
1967.19	-8.6348
1968.02	-8.518
1968.86	-8.3841
1969.69	-8.19021
1970.53	-7.9536
1971.36	-7.72507
1972.19	-7.52712
1973.03	-7.29691
1973.86	-7.38714
1974.69	-8.14194
1975.53	-8.85178
1976.36	-9.74096
1977.19	-10.779
1978.02	-11.6937
1978.85	-12.4269
1979.69	-13.0973
1980.52	-13.6296
1981.35	-13.9641
1982.18	-13.7639
1983.01	-13.3417
1983.84	-12.7945
1984.67	-12.1401
1985.5	-11.7785
1986.33	-11.7893
1987.16	-11.7371
1987.99	-11.2858
1988.82	-10.3797
1989.65	-9.58601
1990.48	-9.26394
1991.31	-9.55218
1992.13	-10.1199
1992.96	-10.8443
1993.79	-11.2229
1994.62	-11.9625
1995.45	-12.7467
1996.27	-13.4571
1997.1	-13.9636
1997.93	-14.3977
1998.75	-14.763
1999.58	-15.0058
2000.41	-15.0474
2001.23	-14.6864
2002.06	-14.0405
2002.88	-13.3513
2003.71	-12.6685
2004.53	-12.3463
2005.36	-12.1627
2006.18	-12.0705
2007.01	-12.2815
2007.83	-13.2422
2008.66	-14.3685
2009.48	-15.144
2010.3	-15.6422
2011.13	-16.0045
2011.95	-16.0764
2012.77	-16.0226
2013.59	-15.7521
2014.42	-15.2159
2015.24	-14.7718
2016.06	-14.7449
2016.88	-14.8651
2017.7	-14.042
2018.53	-13.4527
2019.35	-12.9569
2020.17	-12.5732
2020.99	-12.1148
2021.81	-11.7482
2022.63	-11.3701
2023.45	-11.012
2024.27	-10.7573
2025.09	-10.5501
2025.91	-10.45
2026.73	-10.3614
2027.55	-10.4579
2028.36	-10.6913
2029.18	-11.0813
2030	-11.4722
2030.82	-11.9564
2031.64	-12.4477
2032.45	-12.9632
2033.27	-13.1744
2034.09	-12.6245
2034.91	-12.4521
2035.72	-12.8413
2036.54	-13.5898
2037.35	-14.6098
2038.17	-15.5329
2038.99	-16.0447
2039.8	-17.2433
2040.62	-18.0499
2041.43	-18.0924
2042.25	-17.9936
2043.06	-17.784
2043.88	-17.4079
2044.69	-16.7522
2045.5	-15.678
2046.32	-14.1935
2047.13	-12.5339
2047.95	-10.9436
2048.76	-10.5747
2049.57	-10.5433
2050.38	-10.7598
2051.2	-11.0883
2052.01	-11.4296
2052.82	-11.7118
2053.63	-11.9127
2054.45	-12.0987
2055.26	-12.2514
2056.07	-12.3098
2056.88	-12.2418
2057.69	-12.1394
2058.5	-11.9832
2059.31	-11.8838
2060.12	-11.2906
2060.93	-10.6596
2061.74	-10.0724
2062.55	-9.41851
2063.36	-8.83026
2064.17	-8.3189
2064.98	-7.91439
2065.79	-7.90867
2066.59	-8.00098
2067.4	-8.11793
2068.21	-8.36006
2069.02	-8.60786
2069.82	-8.93187
2070.63	-9.28321
2071.44	-9.63829
2072.25	-10.0452
2073.05	-10.351
2073.86	-10.7012
2074.67	-10.7127
2075.47	-10.5564
2076.28	-10.3428
2077.08	-9.9291
2077.89	-9.86118
2078.69	-10.0397
2079.5	-10.7076
2080.3	-11.3664
2081.11	-12.1467
2081.91	-12.9403
2082.72	-13.775
2083.52	-14.4931
2084.32	-15.1891
2085.13	-15.8404
2085.93	-16.4068
2086.73	-16.9373
2087.53	-17.3567
2088.34	-17.7515
2089.14	-18.009
2089.94	-17.9589
2090.74	-17.8661
2091.54	-17.4653
2092.35	-17.3572
2093.15	-17.2617
2093.95	-17.4893
2094.75	-17.5204
2095.55	-17.5283
2096.35	-17.4418
2097.15	-17.3476
2097.95	-17.2264
2098.75	-17.0687
2099.55	-16.8684
2100.35	-16.6672
2101.15	-16.439
2101.95	-16.2579
2102.74	-16.0741
2103.54	-15.8184
2104.34	-15.4204
2105.14	-14.9877
2105.94	-14.5718
2106.73	-14.237
2107.53	-14.2208
2108.33	-15.0476
2109.13	-15.373
2109.92	-15.3623
2110.72	-15.0219
2111.51	-14.4054
2112.31	-13.6574
2113.11	-13.4576
2113.9	-13.5676
2114.7	-14.123
2115.49	-15.7628
2116.29	-17.7044
2117.08	-19.2386
2117.88	-20.3164
2118.67	-20.7411
2119.46	-21.343
2120.26	-21.4324
2121.05	-20.8604
2121.85	-18.7243
2122.64	-15.7949
2123.43	-11.0468
2124.22	-8.09584
2125.02	-6.93101
2125.81	-10.3943
2126.6	-11.5812
2127.39	-12.9251
2128.18	-14.17
2128.98	-15.3662
2129.77	-16.4928
2130.56	-17.6969
2131.35	-18.7549
2132.14	-19.4436
2132.93	-18.6112
2133.72	-18.0711
2134.51	-17.8285
2135.3	-17.5762
2136.09	-17.1644
2136.88	-16.7477
2137.67	-15.9878
2138.46	-15.2297
2139.24	-14.339
2140.03	-13.8477
2140.82	-13.6339
2141.61	-13.6944
2142.4	-13.2977
2143.18	-12.6946
2143.97	-12.2063
2144.76	-11.7909
2145.54	-11.5827
2146.33	-11.418
2147.12	-11.4189
2147.9	-11.501
2148.69	-11.7094
2149.48	-11.992
2150.26	-12.3535
2151.05	-12.8076
2151.83	-13.3258
2152.62	-13.7894
2153.4	-14.5715
2154.19	-15.5753
2154.97	-16.5669
2155.75	-17.5314
2156.54	-18.3204
2157.32	-18.8597
2158.1	-18.1001
2158.89	-17.344
2159.67	-16.0884
2160.45	-14.7228
2161.24	-13.1277
2162.02	-12.4064
2162.8	-12.317
2163.58	-12.3093
2164.36	-12.3614
2165.15	-12.3647
2165.93	-12.4042
2166.71	-12.4578
2167.49	-12.5577
2168.27	-12.6598
2169.05	-12.7623
2169.83	-12.8669
2170.61	-12.951
2171.39	-13.0492
2172.17	-13.1237
2172.95	-13.1136
2173.73	-13.1165
2174.51	-13.0164
2175.29	-12.8779
2176.06	-12.7456
2176.84	-12.5845
2177.62	-12.3799
2178.4	-12.1571
2179.18	-11.9616
2179.95	-11.5314
2180.73	-11.1033
2181.51	-10.4849
2182.28	-10.206
2183.06	-10.0634
2183.84	-9.97084
2184.61	-10.3243
2185.39	-11.1374
2186.16	-11.761
2186.94	-12.4829
2187.71	-13.1623
2188.49	-13.9463
2189.26	-14.6973
2190.04	-15.459
2190.81	-16.223
2191.59	-16.9873
2192.36	-17.8102
2193.13	-18.7605
2193.91	-19.4772
2194.68	-19.7999
2195.45	-18.3267
2196.23	-16.7565
2197	-15.0142
2197.77	-13.6522
2198.54	-11.9628
2199.32	-10.4608
2200.09	-9.49746
2200.86	-9.00547
2201.63	-9.19501
2202.4	-9.48265
2203.17	-9.61512
2203.94	-9.65894
2204.71	-11.2449
2205.48	-12.1139
2206.25	-12.6531
2207.02	-12.8524
2207.79	-12.8319
2208.56	-12.5394
2209.33	-12.0208
2210.1	-11.2008
2210.87	-10.2572
2211.64	-9.37502
2212.41	-8.64707
2213.18	-8.88245
2213.94	-9.19627
2214.71	-9.46411
2215.48	-9.54287
2216.25	-9.53172
2217.01	-9.45409
2217.78	-9.42571
2218.55	-9.24844
2219.31	-9.26775
2220.08	-9.40614
2220.85	-9.54781
2221.61	-9.56965
2222.38	-9.44478
2223.14	-9.00889
2223.91	-8.08499
2224.67	-7.18501
2225.44	-6.10308
2226.2	-4.88842
2226.97	-3.54005
2227.73	-2.03032
2228.49	-0.329498
2229.26	1.62746
2230.02	3.67751
2230.78	5.81732
2231.55	7.87704
2232.31	9.52243
2233.07	10.8952
2233.83	11.953
2234.6	12.6584
2235.36	13.0088
2236.12	13.0952
2236.88	12.8536
2237.64	12.3709
2238.4	11.6309
2239.16	10.545
2239.93	9.2989
2240.69	8.0905
2241.45	6.77408
2242.21	5.48194
2242.97	4.23597
2243.73	3.15199
2244.48	2.08412
2245.24	1.08119
2246	0.155284
2246.76	-0.700876
2247.52	-1.50305
2248.28	-2.2789
2249.04	-3.00805
2249.79	-3.72061
2250.55	-4.50047
2251.31	-5.29286
2252.07	-6.08821
2252.82	-6.79664
2253.58	-7.38739
2254.34	-7.96522
2255.09	-7.84483
2255.85	-7.40716
2256.61	-6.85564
2257.36	-6.24018
2258.12	-5.53352
2258.87	-4.88151
2259.63	-4.18578
2260.38	-3.44828
2261.14	-2.732
2261.89	-2.00763
2262.65	-1.27489
2263.4	-0.581682
2264.15	0.0426658
2264.91	0.699942
2265.66	1.3892
2266.41	2.08637
2267.17	2.81532
2267.92	3.52422
2268.67	4.17384
2269.42	4.84098
2270.18	5.64938
2270.93	6.53644
2271.68	7.1385
2272.43	7.48486
2273.19	7.41207
2273.97	7.03223
2274.76	6.8302
2275.55	6.68503
2276.33	6.59066
2277.12	6.50257
2277.9	6.39599
2278.69	6.35003
2279.48	6.58897
2280.26	6.81492
2281.05	7.2358
2281.83	7.66444
2282.62	8.11
2283.4	8.50549
2284.19	8.58228
2284.97	7.52184
2285.75	8.67898
2286.54	8.14824
2287.32	6.98065
2288.1	5.83712
2288.89	4.85301
2289.67	4.03808
2290.45	3.3383
2291.24	2.83617
2292.02	2.48043
2292.8	2.24052
2293.58	2.26327
2294.36	2.4786
2295.15	2.93193
2295.93	3.39565
2296.71	4.5747
2297.49	5.81468
2298.27	7.17008
2299.05	8.54566
2299.83	9.88056
2300.61	11.2106
2301.39	11.4259
2302.17	11.8018
2302.95	11.8204
2303.73	11.6118
2304.51	11.4884
2305.29	11.2565
2306.07	11.4592
2306.85	11.0496
2307.63	9.4737
2308.41	8.14819
2309.19	7.22517
2309.96	6.67448
2310.74	6.46847
2311.52	6.73678
2312.3	7.05168
2313.08	7.68917
2313.85	8.27185
2314.63	8.83899
2315.41	9.14355
2316.18	9.13295
2316.96	8.85252
2317.74	8.34208
2318.51	7.62363
2319.29	6.60459
2320.07	5.5043
2320.84	4.16146
2321.62	2.71097
2322.39	1.29961
2323.17	-0.153894
2323.94	-1.30661
2324.72	-1.34725
2325.49	-1.22272
2326.27	-1.30954
2327.04	-1.3234
2327.81	-1.30131
2328.59	-1.16029
2329.36	-1.23086
2330.13	-1.22143
2330.91	-1.24331
2331.68	-1.2122
2332.45	-1.17486
2333.23	-1.0622
2334	-0.886438
2334.77	-0.709651
2335.54	-0.547787
2336.32	-0.360052
2337.09	-0.163683
2337.86	0.0357437
2338.63	0.171899
2339.4	0.462614
2340.17	0.73879
2340.94	1.02376
2341.71	1.28407
2342.48	1.54113
2343.26	1.78347
2344.03	2.02815
2344.8	2.21595
2345.57	2.41003
2346.33	2.51273
2347.1	2.58435
2347.87	2.46714
2348.64	2.12735
2349.41	1.73697
2350.18	1.31359
2350.95	0.908507
2351.72	0.497677
2352.48	0.0894006
2353.25	-0.281346
2354.02	-0.646084
2354.79	-0.827917
2355.56	-0.996149
2356.32	-1.11593
2357.09	-1.26839
2357.86	-1.23265
2358.62	-1.1088
2359.39	-0.963725
2360.16	-0.756609
2360.92	-0.567559
2361.69	-0.391756
2362.45	-0.241595
2363.22	-0.224295
2363.98	-0.202849
2364.75	-0.163449
2365.51	-0.0228084
2366.28	0.0239802
2367.04	0.0349412
2367.81	-0.000478088
2368.57	-0.0626989
2369.34	-0.235045
2370.1	-0.590591
2370.86	-0.936496
2371.63	-1.38587
2372.39	-1.68606
2373.15	-0.713211
2373.92	0.608762
2374.68	1.50442
2375.44	1.35533
2376.21	1.02184
2376.97	0.647986
2377.73	0.329413
2378.49	0.174789
2379.25	0.0140408
2380.01	-0.179174
2380.78	-0.254634
2381.54	-0.293726
2382.3	-0.234333
2383.06	-0.139639
2383.82	0.0135247
2384.58	0.390148
2385.34	0.728193
2386.1	1.03358
2386.86	1.20718
2387.62	1.11584
2388.38	-0.302763
2389.14	-1.56123
2389.9	-2.76317
2390.66	-3.86441
2391.41	-4.51619
2392.17	-4.70811
2392.93	-4.64075
2393.69	-4.00429
2394.45	-3.06241
2395.21	-2.03607
2395.96	-0.997826
2396.72	0.0502087
2397.48	0.762474
2398.24	1.40766
2398.99	1.90938
2399.75	2.24243
2400.51	2.48316
2401.26	2.51971
2402.02	2.27819
2402.77	1.85197
2403.53	1.27758
2404.29	0.488979
2405.04	-0.425522
2405.8	-1.36533
2406.55	-2.32916
2407.31	-3.05972
2408.06	-3.82597
2408.82	-4.03168
2409.57	-3.96999
2410.32	-3.8903
2411.08	-3.76484
2411.83	-3.60548
2412.59	-3.50998
2413.34	-3.48236
2414.09	-3.32921
2414.85	-3.59264
2415.6	-3.97344
2416.35	-4.49331
2417.1	-4.9781
2417.86	-5.59884
2418.61	-6.2048
2419.36	-6.85295
2420.11	-7.39593
2420.86	-8.07003
2421.61	-8.77253
2422.37	-9.25329
2423.12	-9.45364
2423.87	-9.27678
2424.62	-8.87182
2425.37	-7.7044
2426.12	-6.72819
2426.87	-5.90964
2427.62	-5.1083
2428.37	-4.4966
2429.12	-4.04421
2429.87	-4.32396
2430.62	-4.68489
2431.37	-5.11953
2432.11	-5.54829
2432.86	-5.91406
2433.61	-6.24838
2434.36	-6.18065
2435.11	-6.1398
2435.86	-6.11916
2436.6	-5.55977
2437.35	-4.88308
2438.1	-4.08603
2438.85	-3.17775
2439.59	-2.24385
2440.34	-1.33129
2441.09	-0.383526
2441.83	0.210156
2442.58	0.753349
2443.33	1.16024
2444.07	0.835673
2444.82	0.357541
2445.56	-0.682451
2446.31	-1.7094
2447.05	-2.73994
2447.8	-3.64293
2448.54	-4.5947
2449.29	-5.44818
2450.03	-6.15244
2450.78	-6.85458
2451.52	-7.56712
2452.26	-7.88302
2453.01	-8.10331
2453.75	-8.27261
2454.49	-8.3343
2455.24	-8.33211
2455.98	-8.29093
2456.72	-8.26557
2457.47	-8.21579
2458.21	-8.16769
2458.95	-8.15362
2459.69	-8.35491
2460.43	-8.40555
2461.18	-8.60258
2461.92	-8.82945
2462.66	-9.22195
2463.4	-9.55187
2464.14	-9.89948
2464.88	-10.1953
2465.62	-10.5408
2466.36	-10.3379
2467.1	-9.17726
2467.84	-8.24957
2468.58	-7.22567
2469.32	-6.23353
2470.06	-5.65774
2470.8	-5.27245
2471.54	-4.76062
2472.28	-4.44551
2473.02	-4.34048
2473.76	-4.46064
2474.5	-4.99008
2475.23	-5.89386
2475.97	-7.43474
2476.71	-8.98766
2477.45	-10.894
2478.19	-12.7676
2478.92	-14.7231
2479.66	-16.0414
2480.4	-16.7776
2481.13	-17.2107
2481.87	-17.3776
2482.61	-17.3089
2483.34	-17.0827
2484.08	-16.6694
2484.81	-16.1071
2485.55	-15.2385
2486.29	-13.9473
2487.02	-12.471
2487.76	-10.9912
2488.49	-9.51623
2489.23	-8.19844
2489.96	-7.2572
2490.69	-6.40258
2491.43	-5.73081
2492.16	-5.41054
2492.9	-5.17894
2493.63	-5.44969
2494.36	-6.12123
2495.1	-7.52443
2495.83	-10.903
2496.56	-14.3196
2497.3	-15.5936
2498.03	-16.0788
2498.76	-13.9685
2499.49	-12.1868
2500.22	-11.0121
2500.96	-9.99315
2501.69	-9.09281
2502.42	-8.52152
2503.15	-7.98877
2503.88	-10.6591
2504.61	-11.9263
2505.34	-12.5607
2506.07	-11.5758
2506.8	-10.7391
2507.54	-9.88083
2508.26	-9.36361
2509	-9.08981
2509.72	-8.87548
2510.45	-8.89787
2511.18	-8.53423
2511.91	-8.18146
2512.64	-7.62348
2513.37	-7.49561
2514.1	-7.46165
2514.83	-7.64347
2515.55	-8.06002
2516.28	-8.44001
2517.01	-8.88483
2517.74	-9.38506
2518.47	-9.93513
2519.19	-10.5086
2519.92	-11.072
2520.65	-11.7029
2521.37	-12.2993
2522.1	-12.8233
2522.83	-13.7297
2523.55	-14.8981
2524.28	-15.3786
2525.01	-15.0947
2525.73	-14.707
2526.46	-14.2409
2527.18	-13.7381
2527.91	-13.2968
2528.63	-12.812
2529.36	-12.2392
2530.08	-11.7449
2530.8	-11.2578
2531.53	-10.8946
2532.25	-10.5762
2532.98	-10.3934
2533.7	-10.3126
2534.42	-10.5053
2535.15	-11.1037
2535.87	-12.0578
2536.59	-13.2784
2537.32	-13.8422
2538.04	-13.9172
2538.76	-13.9277
2539.48	-13.8855
2540.21	-13.7934
2540.93	-13.6597
2541.65	-13.6239
2542.37	-13.6157
2543.09	-13.6205
2543.81	-13.5952
2544.53	-13.6613
2545.25	-13.728
2545.97	-13.8327
2546.69	-13.8702
2547.42	-13.9904
2548.14	-14.0618
2548.85	-14.2214
2549.57	-14.533
2550.29	-16.3216
2551.01	-16.5098
2551.73	-15.9081
2552.45	-15.1807
2553.17	-14.6238
2553.89	-14.1556
2554.61	-13.8146
2555.32	-13.7254
2556.04	-13.7207
2556.76	-14.0939
2557.48	-14.7539
2558.2	-15.7867
2558.91	-16.9715
2559.63	-18.0187
2560.35	-18.8891
2561.06	-18.6165
2561.78	-17.7361
2562.5	-15.9532
2563.21	-13.6801
2563.93	-10.1882
2564.64	-4.01056
2565.36	-5.10305
2566.08	-5.66288
2566.79	-5.35461
2567.51	-4.68196
2568.22	-8.69218
2568.94	-10.2285
2569.65	-8.94021
2570.36	-9.38732
2571.08	-9.90603
2571.79	-10.4054
2572.51	-10.7546
2573.22	-11.1365
2573.93	-11.492
2574.65	-11.5874
2575.36	-11.7599
2576.07	-11.698
2576.79	-11.6625
2577.5	-11.5383
2578.21	-11.4529
2578.92	-11.3594
2579.64	-11.2825
2580.35	-11.2421
2581.06	-11.1991
2581.77	-11.3176
2582.48	-11.5439
2583.19	-11.8997
2583.9	-12.4888
2584.61	-13.1457
2585.32	-13.8291
2586.03	-14.9423
2586.74	-15.5393
2587.45	-14.4616
2588.16	-14.1018
2588.87	-13.9561
2589.58	-14.2049
2590.29	-14.4216
2591	-14.6458
2591.71	-14.5398
2592.42	-13.9568
2593.13	-12.651
2593.84	-15.8113
2594.54	-16.1099
2595.25	-15.8956
2595.96	-15.4735
2596.67	-14.8102
2597.38	-14.0129
2598.08	-13.1224
2598.79	-12.1123
2599.5	-11.1802
2600.2	-10.5052
2600.91	-11.0582
2601.62	-11.7809
2602.32	-12.5987
2603.03	-13.2713
2603.74	-14.0074
2604.44	-14.7225
2605.15	-15.3172
2605.85	-16.1073
2606.56	-16.8029
2607.26	-17.261
2607.97	-17.3181
2608.67	-16.8127
2609.37	-15.955
2610.08	-14.7744
2610.78	-13.2973
2611.49	-11.5802
2612.19	-9.8947
2612.89	-8.51289
2613.6	-8.78643
2614.3	-9.59777
2615	-10.6319
2615.71	-11.4873
2616.41	-12.6419
2617.11	-13.8468
2617.81	-14.9178
2618.52	-15.8798
2619.22	-16.6378
2619.92	-17.2042
2620.62	-17.4471
2621.32	-17.1923
2622.02	-16.7633
2622.72	-15.9657
2623.43	-14.5566
2624.13	-13.1594
2624.83	-11.7236
2625.53	-10.968
2626.23	-10.2065
2626.93	-10.4298
2627.63	-10.8722
2628.33	-11.3701
2629.02	-11.9783
2629.72	-12.5637
2630.42	-13.1378
2631.12	-13.5337
2631.82	-13.7202
2632.52	-13.8878
2633.22	-14.0293
2633.91	-14.0572
2634.61	-14.1246
2635.31	-14.209
2636.01	-14.322
2636.71	-14.521
2637.4	-14.7874
2638.1	-15.2021
2638.8	-15.5496
2639.49	-16.1482
2640.19	-16.5483
2640.89	-16.9403
2641.58	-17.306
2642.28	-17.3246
2642.97	-17.0297
2643.67	-16.7933
2644.36	-16.5346
2645.06	-16.4907
2645.75	-17.158
2646.45	-18.2478
2647.14	-19.3222
2647.84	-20.4505
2648.53	-21.0294
2649.23	-20.841
2649.92	-20.4861
2650.61	-20.0824
2651.31	-19.2886
2652	-18.4987
2652.69	-17.6681
2653.39	-16.9917
2654.08	-16.4225
2654.77	-15.904
2655.47	-15.6172
2656.16	-15.3847
2656.85	-15.4059
2657.54	-15.5922
2658.23	-15.8765
2658.92	-16.4088
2659.62	-17.3546
2660.31	-18.3095
2661	-19.2799
2661.69	-20.1792
2662.38	-20.5013
2663.07	-20.7097
2663.76	-20.6586
2664.45	-20.4676
2665.14	-19.4654
2665.83	-18.333
2666.52	-16.8661
2667.21	-15.8866
2667.9	-15.7233
2668.59	-15.5359
2669.28	-15.4545
2669.97	-15.3942
2670.65	-15.4044
2671.34	-15.4124
2672.03	-15.2323
2672.72	-15.1147
2673.41	-14.828
2674.09	-14.4422
2674.78	-14.1178
2675.47	-13.7723
2676.16	-13.4609
2676.84	-13.1362
2677.53	-12.8009
2678.22	-12.5962
2678.9	-12.3021
2679.59	-12.2943
2680.27	-12.3767
2680.96	-12.7051
2681.65	-13.0071
2682.33	-13.3574
2683.02	-13.749
2683.7	-14.144
2684.39	-14.5837
2685.07	-15.0249
2685.75	-15.4303
2686.44	-15.4605
2687.12	-15.8998
2687.81	-16.2957
2688.49	-16.7359
2689.18	-17.2956
2689.86	-17.6908
2690.54	-17.7004
2691.22	-17.6728
2691.91	-17.1876
2692.59	-16.8781
2693.27	-16.5393
2693.96	-16.2601
2694.64	-16.0395
2695.32	-15.934
2696	-15.8441
2696.68	-15.8715
2697.36	-15.9074
2698.05	-16.0852
2698.73	-16.2384
2699.41	-16.4675
2700.09	-16.9733
2700.77	-17.6191
2701.45	-18.05
2702.13	-18.139
2702.81	-17.8842
2703.49	-17.2292
2704.17	-16.6594
2704.85	-16.0999
2705.53	-15.6388
2706.21	-15.1651
2706.89	-14.7406
2707.57	-14.3532
2708.24	-14.0948
2708.92	-13.8958
2709.6	-13.9232
2710.28	-14.0019
2710.96	-14.1795
2711.63	-14.386
2712.31	-14.8136
2712.99	-15.3644
2713.67	-16.0186
2714.34	-16.417
2715.02	-16.7347
2715.7	-17.0088
2716.37	-16.8953
2717.05	-16.8428
2717.73	-16.7459
2718.4	-16.6914
2719.08	-16.765
2719.75	-16.6213
2720.43	-16.9362
2721.1	-17.2421
2721.78	-17.7233
2722.45	-18.1219
2723.13	-18.4864
2723.8	-18.7753
2724.48	-19.0427
2725.15	-19.1636
2725.83	-18.6913
2726.5	-18.4203
2727.17	-18.0424
2727.85	-17.5857
2728.52	-16.9314
2729.19	-16.2961
2729.86	-15.7094
2730.54	-15.1554
2731.21	-14.803
2731.88	-15.2605
2732.55	-16.0669
2733.23	-16.9745
2733.9	-17.862
2734.57	-18.6428
2735.24	-18.843
2735.91	-18.9751
2736.58	-19.0797
2737.25	-18.8248
2737.93	-18.3351
2738.6	-17.7146
2739.27	-16.9905
2739.94	-16.158
2740.61	-15.3464
2741.28	-15.0204
2741.95	-14.3604
2742.62	-13.5235
2743.29	-12.7449
2743.95	-12.2867
2744.62	-13.7743
2745.29	-15.8003
2745.96	-16.7177
2746.63	-17.4756
2747.3	-17.9988
2747.97	-18.1274
2748.63	-18.0942
2749.3	-18.0501
2749.97	-18.0418
2750.64	-17.8758
2751.3	-18.109
2751.97	-18.288
2752.64	-18.6008
2753.3	-18.8036
2753.97	-18.9205
2754.64	-18.8
2755.3	-18.6123
2755.97	-18.0812
2756.63	-17.5929
2757.3	-17.0287
2757.96	-16.1479
2758.63	-15.2714
2759.29	-14.4563
2759.96	-13.7005
2760.62	-13.4921
2761.29	-13.6954
2761.95	-13.8038
2762.62	-14.1433
2763.28	-14.5832
2763.94	-15.7567
2764.61	-17.1595
2765.27	-18.4739
2765.93	-19.6116
2766.6	-20.4688
2767.26	-21.2088
2767.92	-21.4969
2768.59	-21.2666
2769.25	-20.8993
2769.91	-20.4545
2770.57	-19.9072
2771.23	-19.3552
2771.9	-18.9974
2772.56	-18.5763
2773.22	-18.3526
2773.88	-18.2278
2774.54	-18.1595
2775.2	-18.1116
2775.86	-18.1728
2776.52	-18.3017
2777.18	-18.413
2777.84	-18.5698
2778.5	-18.7122
2779.16	-18.8054
2779.82	-18.8672
2780.48	-18.6153
2781.14	-18.4742
2781.8	-18.1792
2782.46	-17.7724
2783.12	-17.2832
2783.77	-16.5554
2784.43	-15.6493
2785.09	-14.9253
2785.75	-15.9522
2786.41	-15.2381
2787.06	-14.5532
2787.72	-15.4048
2788.38	-17.4124
2789.03	1642
2789.69	2.59544
2790.35	-30.4053
2791.01	-26.0247
2791.66	-22.5869
2792.32	-17.2729
2792.97	-16.0878
2793.63	-17.9568
2794.28	-17.5987
2794.94	-18.0887
2795.59	-17.5249
2796.25	-17.1298
2796.9	-17.0246
2797.56	-16.8786
2798.21	-16.7164
2798.87	-16.6586
2799.52	-16.5078
2800.18	-16.5847
2800.83	-16.6254
2801.48	-16.6928
2802.14	-16.7416
2802.79	-16.8094
2803.44	-16.8557
2804.1	-16.8651
2804.75	-16.8845
2805.4	-16.7953
2806.05	-16.8566
2806.71	-16.5534
2807.36	-16.0601
2808.01	-15.2245
2808.66	-14.5638
2809.31	-13.8968
2809.96	-13.3109
2810.62	-12.7904
2811.27	-12.3547
2811.92	-12.5756
2812.57	-12.6793
2813.22	-12.8892
2813.87	-13.3853
2814.52	-14.1462
2815.17	-15.0536
2815.82	-16.2151
2816.47	-17.5636
2817.12	-19.1809
2817.77	-20.8054
2818.41	-22.2991
2819.06	-21.8359
2819.71	-21.0898
2820.36	-20.1043
2821.01	-19.422
2821.66	-18.1803
2822.31	-16.6718
2822.95	-15.2234
2823.6	-13.9191
2824.25	-12.8861
2824.9	-12.4905
2825.54	-12.4796
2826.19	-12.8152
2826.84	-13.6303
2827.48	-14.8489
2828.13	-16.571
2828.77	-17.714
2829.42	-18.6442
2830.07	-19.3057
2830.71	-19.7984
2831.36	-19.9907
2832	-19.9616
2832.65	-19.7136
2833.29	-19.3695
2833.94	-18.6683
2834.58	-17.7837
2835.23	-16.6244
2835.87	-15.2835
2836.51	-14.0586
2837.16	-13.0662
2837.8	-13.0437
2838.45	-12.619
2839.09	-12.2587
2839.73	-11.8719
2840.37	-11.264
2841.02	-10.7305
2841.66	-10.2714
2842.3	-9.99441
2842.94	-9.96436
2843.59	-10.075
2844.23	-10.3248
2844.87	-10.864
2845.51	-11.5589
2846.15	-12.3465
2846.79	-13.42
2847.44	-13.8935
2848.08	-14.0103
2848.72	-14.0982
2849.36	-14.2036
2850	-14.2477
2850.64	-14.2186
2851.28	-14.1565
2851.92	-14.067
2852.56	-13.9229
2853.2	-13.8001
2853.84	-13.6406
2854.48	-13.3605
2855.11	-13.1039
2855.75	-12.7576
2856.39	-12.521
2857.03	-12.156
2857.67	-11.8822
2858.31	-11.5752
2858.94	-11.2689
2859.58	-10.9835
2860.22	-10.7323
2860.86	-10.5098
2861.49	-10.3962
2862.13	-10.3181
2862.77	-10.3444
2863.4	-10.5426
2864.04	-10.7492
2864.68	-11.0375
2865.31	-11.6519
2865.95	-12.3631
2866.58	-12.8145
2867.22	-12.3044
2867.85	-11.8594
2868.49	-11.1967
2869.13	-10.5516
2869.76	-10.0195
2870.39	-9.65566
2871.03	-9.30792
2871.66	-9.08537
2872.3	-8.96443
2872.93	-8.7654
2873.56	-8.45766
2874.2	-8.37875
2874.83	-8.58711
2875.47	-8.63862
2876.1	-8.54842
2876.73	-8.11789
2877.36	-7.63915
2878	-6.94598
2878.63	-6.12845
2879.26	-5.43269
2879.89	-4.73004
2880.52	-4.10217
2881.16	-3.72477
2881.79	-3.59596
2882.42	-3.61723
2883.05	-4.07433
2883.68	-5.02485
2884.31	-6.11581
2884.94	-7.06255
2885.57	-7.71438
2886.2	-8.18585
2886.83	-8.86317
2887.46	-9.38371
2888.09	-9.43873
2888.72	-9.21709
2889.35	-8.78542
2889.98	-8.00866
2890.61	-7.01737
2891.24	-5.89289
2891.87	-4.72593
2892.5	-3.5489
2893.12	-2.54509
2893.75	-1.75217
2894.38	-1.14431
2895.01	-0.74501
2895.64	-0.548514
2896.26	-0.527497
2896.89	-0.646687
2897.52	-0.792669
2898.14	-1.17426
2898.77	-1.85872
2899.4	-2.74273
2900.02	-3.34189
2900.65	-3.90338
2901.28	-4.49279
2901.9	-4.95485
2902.53	-5.36884
2903.15	-5.74274
2903.78	-6.15137
2904.4	-6.45035
2905.03	-6.79375
2905.65	-6.96237
2906.28	-6.87229
2906.9	-6.52782
2907.53	-5.82743
2908.15	-4.83549
2908.77	-3.60667
2909.4	-2.27557
2910.02	-0.835994
2910.65	0.397854
2911.27	1.37112
2911.89	2.49396
2912.51	3.59673
2913.14	3.99749
2913.76	4.15486
2914.38	4.15146
2915	4.04004
2915.63	3.86021
2916.25	3.60038
2916.87	3.43026
2917.49	3.2643
2918.11	3.07848
2918.73	2.85833
2919.35	2.59526
2919.98	2.32505
2920.6	2.08049
2921.22	2.03786
2921.7	2.12039
2922.35	2.57819
2923.01	2.85393
2923.67	2.96001
2924.32	3.03837
2924.98	3.06438
2925.63	2.8567
2926.29	2.59364
2926.94	2.31222
2927.59	1.99683
2928.25	-3.72854
2928.9	2.84263
2929.56	5.03438
2930.21	6.82921
2930.86	7.6056
2931.52	5.68526
2932.17	3.50206
2932.83	1.88254
2933.48	0.502546
2934.13	0.163428
2934.78	-0.525605
2935.44	-0.919162
2936.09	-1.22147
2936.74	-1.33118
2937.39	-1.27426
2938.05	-1.12522
2938.7	-0.142272
2939.35	0.886832
2940	2.04939
2940.65	3.20241
2941.31	4.08261
2941.96	4.77794
2942.61	5.32126
2943.26	5.75442
2943.91	5.93111
2944.56	5.90311
2945.21	5.64945
2945.86	5.29478
2946.51	4.69504
2947.16	4.17632
2947.81	4.00619
2948.46	3.71804
2949.11	2.86192
2949.76	2.11588
2950.41	1.47957
2951.06	1.20782
2951.71	1.16357
2952.35	1.5864
2953	2.1686
2953.65	2.81458
2954.3	3.12195
2954.95	3.83454
2955.6	4.60965
2956.24	4.36653
2956.89	3.71002
2957.54	2.9602
2958.19	2.16016
2958.83	1.57332
2959.48	0.947473
2960.13	0.380548
2960.77	-0.175437
2961.42	-0.69054
2962.07	-1.16598
2962.71	-1.51156
2963.36	-1.95657
2964.01	-2.20713
2964.65	-2.19828
2965.3	-1.60054
2965.94	-1.25681
2966.59	-0.977718
2967.23	-0.666984
2967.88	-0.498775
2968.52	-0.452967
2969.17	-0.475619
2969.81	-0.932678
2970.46	-1.55085
2971.1	-1.37229
2971.75	-1.14019
2972.39	-1.00031
2973.03	-1.01819
2973.68	-1.10422
2974.32	-1.49323
2974.97	-2.40155
2975.61	-2.60069
2976.25	-2.35807
2976.89	-1.99217
2977.54	-1.67928
2978.18	-1.37342
2978.82	-1.0582
2979.47	-0.793379
2980.11	-0.512298
2980.75	-0.262001
2981.39	-0.0332547
2982.03	0.142907
2982.68	0.30145
2983.32	0.343293
2983.96	0.268582
2984.6	-0.731813
2985.24	-1.35228
2985.88	-1.86608
2986.52	-2.22234
2987.16	-2.37167
2987.8	-2.07446
2988.44	-1.62878
2989.08	-1.08965
2989.72	-0.481747
2990.36	0.144815
2991	0.378433
2991.64	0.890095
2992.28	1.33891
2992.92	1.70103
2993.56	1.77582
2994.2	1.28837
2994.84	0.724524
2995.48	0.0309039
2996.11	-0.822867
2996.75	-1.81359
2997.39	-3.00304
2998.03	-4.23336
2998.67	-5.2665
2999.3	-6.0013
2999.94	-6.10222
3000.58	-5.86264
3001.22	-4.56488
3001.85	-3.01111
3002.49	-1.42608
3003.13	-0.192258
3003.76	0.887091
3004.4	1.79298
3005.04	2.50263
3005.67	2.9308
3006.31	3.05593
3006.94	2.92021
3007.58	2.56483
3008.22	2.05898
3008.85	1.44193
3009.49	0.983751
3010.12	0.46936
3010.76	0.254135
3011.39	0.309709
3012.03	-0.368192
3012.66	-0.502703
3013.29	-0.296507
3013.93	0.0136712
3014.56	0.243475
3015.2	0.378951
3015.83	0.740885
3016.46	1.08448
3017.1	1.26823
3017.73	1.32289
3018.36	1.14398
3019	0.54946
3019.63	-0.183628
3020.26	-0.970555
3020.89	-1.69525
3021.53	-2.37464
3022.16	-2.30348
3022.79	-2.02164
3023.42	-1.78222
3024.05	-1.66979
3024.69	-1.66771
3025.32	-1.84539
3025.95	-2.69154
3026.58	-4.08443
3027.21	-6.04097
3027.84	-6.60717
3028.47	-7.11493
3029.1	-7.56334
3029.73	-7.46257
3030.36	-7.42157
3030.99	-8.12127
3031.62	-7.28619
3032.25	-6.24345
3032.88	-5.50967
3033.51	-4.93648
3034.14	-4.50277
3034.77	-4.34945
3035.4	-4.46791
3036.03	-4.89688
3036.66	-5.56206
3037.29	-6.53251
3037.91	-7.1239
3038.54	-7.26227
3039.17	-7.51788
3039.8	-8.58475
3040.43	-9.64384
3041.05	-9.53494
3041.68	-8.65616
3042.31	-6.59552
3042.94	-5.13629
3043.56	-3.96807
3044.19	-3.18016
3044.82	-2.68846
3045.44	-2.56536
3046.07	-2.86811
3046.7	-3.54994
3047.32	-4.64023
3047.95	-6.08499
3048.57	-7.92076
3049.2	-9.98162
3049.82	-10.9734
3050.45	-11.7217
3051.07	-12.1625
3051.7	-12.7126
3052.32	-13.089
3052.95	-11.044
3053.57	-10.5148
3054.2	-9.85238
3054.82	-9.0982
3055.45	-8.41416
3056.07	-7.87884
3056.69	-7.32506
3057.32	-6.91633
3057.94	-6.53706
3058.57	-6.04152
3059.19	-5.33248
3059.81	-4.45159
3060.43	-3.5241
3061.06	-3.33272
3061.68	-3.62076
3062.3	-4.05366
3062.92	-4.5827
3063.55	-5.16318
3064.17	-5.73293
3064.79	-6.32838
3065.41	-6.85445
3066.03	-7.33957
3066.66	-7.86808
3067.28	-8.38529
3067.9	-8.89705
3068.52	-9.36944
3069.14	-9.8194
3069.76	-10.2083
3070.38	-10.5747
3071	-10.8892
3071.62	-11.1731
3072.24	-11.4375
3072.86	-11.6382
3073.48	-11.9178
3074.1	-11.7791
3074.72	-11.6495
3075.34	-11.3048
3075.96	-11.0681
3076.58	-10.8206
3077.2	-10.5831
3077.82	-10.384
3078.43	-10.1843
3079.05	-10.1134
3079.67	-10.1222
3080.29	-10.5905
3080.91	-10.9654
3081.52	-11.4718
3082.14	-11.9741
3082.76	-12.7696
3083.38	-13.5341
3083.99	-14.3633
3084.61	-14.5164
3085.23	-13.886
3085.84	-13.3724
3086.46	-12.8763
3087.08	-12.3635
3087.69	-12.0162
3088.31	-11.6415
3088.93	-11.326
3089.54	-11.0954
3090.16	-10.9138
3090.77	-10.8655
3091.39	-10.8705
3092	-11.0093
3092.62	-11.175
3093.23	-11.1176
3093.85	-11.7183
3094.46	-12.3704
3095.08	-13.0432
3095.69	-13.7606
3096.31	-14.493
3096.92	-15.1807
3097.53	-15.8604
3098.15	-16.2412
3098.76	-16.6709
3099.37	-17.0052
3099.99	-17.2638
3100.6	-17.4498
3101.21	-17.5533
3101.83	-17.6157
3102.44	-17.6833
3103.05	-17.5493
3103.66	-17.3692
3104.28	-17.081
3104.89	-16.7573
3105.5	-16.4047
3106.11	-16.05
3106.72	-15.668
3107.33	-15.3099
3107.95	-14.9261
3108.56	-14.5839
3109.17	-14.6517
3109.78	-14.3659
3110.39	-14.0536
3111	-13.7699
3111.61	-13.5144
3112.22	-13.2945
3112.83	-13.057
3113.44	-12.9442
3114.05	-13.0992
3114.66	-13.4467
3115.27	-13.711
3115.88	-14.0808
3116.49	-14.4515
3117.1	-14.8248
3117.7	-15.2123
3118.31	-15.5611
3118.92	-15.9357
3119.53	-16.243
3120.14	-16.5127
3120.75	-16.7047
3121.35	-16.6768
3121.96	-16.6756
3122.57	-16.6497
3123.18	-16.6004
3123.78	-16.5223
3124.39	-16.3966
3125	-16.2638
3125.6	-16.1176
3126.21	-15.9386
3126.82	-15.6833
3127.43	-15.717
3128.03	-15.8208
3128.64	-15.9467
3129.24	-16.3421
3129.85	-16.7084
3130.46	-16.9175
3131.06	-17.1849
3131.67	-17.5872
3132.27	-17.607
3132.88	-17.5548
3133.48	-17.1582
3134.09	-16.8441
3134.69	-16.5025
3135.3	-16.1728
3135.9	-15.8181
3136.5	-15.4845
3137.11	-15.1991
3137.71	-14.8915
3138.31	-14.6596
3138.92	-14.5968
3139.52	-14.4182
3140.12	-14.3122
3140.73	-14.3747
3141.33	-14.4195
3141.93	-14.637
3142.54	-14.8596
3143.14	-15.1505
3143.74	-15.4209
3144.34	-15.4722
3144.95	-15.1038
3145.55	-15.2948
3146.15	-15.152
3146.75	-15.1695
3147.35	-15.3043
3147.95	-15.3006
3148.55	-15.1695
3149.15	-15.1559
3149.76	-15.257
3150.36	-15.2941
3150.96	-15.2124
3151.56	-15.1308
3152.16	-14.9659
3152.76	-14.7822
3153.36	-14.5826
3153.96	-14.3646
3154.56	-14.086
3155.16	-13.8139
3155.75	-13.4881
3156.35	-13.0699
3156.95	-12.5454
3157.55	-11.9152
3158.15	-11.3206
3158.75	-10.7327
3159.35	-10.1618
3159.95	-9.8883
3160.54	-10.6657
3161.14	-11.4288
3161.74	-12.4076
3162.34	-12.9999
3162.93	-13.5132
3163.53	-13.2646
3164.13	-13.2052
3164.73	-13.114
3165.32	-13.1243
3165.92	-13.244
3166.52	-13.5785
3167.11	-13.7185
3167.71	-13.8501
3168.31	-14.004
3168.9	-14.1312
3169.5	-14.3263
3170.09	-14.4368
3170.69	-14.6307
3171.28	-14.6851
3171.88	-14.7675
3172.47	-14.7903
3173.07	-14.8399
3173.66	-14.8659
3174.26	-14.7593
3174.85	-14.6913
3175.45	-14.6118
3176.04	-14.5293
3176.64	-14.4895
3177.23	-14.4579
3177.82	-14.4727
3178.42	-14.5333
3179.01	-14.5926
3179.6	-14.7519
3180.2	-15.2861
3180.79	-16.0758
3181.38	-16.7643
3181.97	-17.6243
3182.57	-18.1628
3183.16	-17.8711
3183.75	-17.3998
3184.34	-16.9041
3184.93	-16.2721
3185.53	-15.6156
3186.12	-15.0598
3186.71	-14.9514
3187.3	-15.0926
3187.89	-15.392
3188.48	-15.8849
3189.07	-16.3584
3189.66	-16.5076
3190.25	-16.9305
3190.85	-17.2984
3191.44	-17.6059
3192.03	-17.7772
3192.61	-17.8256
3193.21	-17.3495
3193.79	-16.7082
3194.38	-15.7938
3194.97	-15.1652
3195.56	-14.6877
3196.15	-14.3375
3196.74	-14.3983
3197.33	-14.5154
3197.92	-14.7869
3198.51	-15.1419
3199.09	-15.6258
3199.68	-16.1948
3200.27	-16.7083
3200.86	-17.3143
3201.45	-18.0109
3202.03	-18.6609
3202.62	-19.1641
3203.21	-19.4934
3203.79	-18.4018
3204.38	-17.2743
3204.97	-16.1482
3205.55	-15.1618
3206.14	-14.6998
3206.73	-14.2259
3207.31	-13.9174
3207.9	-13.7142
3208.49	-13.6068
3209.07	-13.6181
3209.66	-13.8089
3210.24	-14.101
3210.83	-14.5394
3211.41	-15.0786
3212	-15.6934
3212.58	-16.4376
3213.17	-17.1763
3213.75	-18.0323
3214.34	-18.8304
3214.92	-18.9624
3215.5	-18.3034
3216.09	-19.1176
3216.67	-19.9483
3217.25	-20.6714
3217.84	-20.9141
3218.42	-20.7139
3219	-19.6781
3219.59	-18.5039
3220.17	-17.3344
3220.75	-16.3744
3221.34	-15.526
3221.92	-14.8253
3222.5	-14.3332
3223.08	-14.0596
3223.66	-13.943
3224.25	-13.9412
3224.83	-14.1667
3225.41	-14.4781
3225.99	-14.789
3226.57	-15.6056
3227.15	-16.4729
3227.73	-17.2984
3228.31	-17.9632
3228.89	-18.2625
3229.48	-17.9554
3230.06	-17.5924
3230.64	-17.0427
3231.22	-16.3734
3231.8	-15.1334
3232.37	-13.9116
3232.95	-12.7412
3233.53	-11.8841
3234.11	-11.5046
3234.69	-11.2407
3235.27	-11.1268
3235.85	-11.2051
3236.43	-11.2809
3237.01	-12.1906
3237.58	-13.2614
3238.16	-14.4063
3238.74	-15.5452
3239.32	-16.7403
3239.9	-17.7825
3240.47	-18.4202
3241.05	-18.5666
3241.63	-18.5557
3242.21	-18.5614
3242.78	-18.4402
3243.36	-18.3818
3243.94	-18.3008
3244.51	-18.2146
3245.09	-18.5559
3245.66	-19.2248
3246.24	-19.6492
3246.82	-20.0414
3247.39	-20.3613
3247.97	-20.5322
3248.54	-20.2967
3249.12	-19.5344
3249.69	-19.0022
3250.27	-18.4623
3250.84	-18.1643
3251.42	-17.9738
3251.99	-17.8006
3252.57	-17.6952
3253.14	-17.5432
3253.72	-17.5002
3254.29	-17.4638
3254.86	-17.3898
3255.44	-17.2601
3256.01	-17.2155
3256.58	-17.272
3257.16	-16.6295
3257.73	-15.7187
3258.3	-14.6907
3258.87	-13.9102
3259.45	-13.3195
3260.02	-12.9259
3260.59	-12.6477
3261.16	-12.5514
3261.74	-12.6865
3262.31	-12.9152
3262.88	-13.3506
3263.45	-14.5197
3264.02	-15.8239
3264.59	-17.1187
3265.16	-18.4911
3265.74	-19.7979
3266.31	-20.5827
3266.88	-21.4076
3267.45	-22.1511
3268.02	-22.3945
3268.59	-22.5144
3269.16	-22.4337
3269.73	-22.2978
3270.3	-22.0328
3270.87	-21.6997
3271.44	-21.2778
3272.01	-20.7776
3272.57	-20.2789
3273.14	-19.7266
3273.71	-19.4794
3274.28	-19.1097
3274.85	-18.847
3275.42	-18.2515
3275.99	-17.6856
3276.55	-17.1725
3277.12	-16.7209
3277.69	-16.374
3278.26	-16.1515
3278.82	-16.1398
3279.39	-17.015
3279.96	-17.7632
3280.53	-18.705
3281.09	-19.8637
3281.66	-20.6573
3282.23	-20.8788
3282.79	-21.2568
3283.36	-21.6019
3283.92	-21.9955
3284.49	-22.2841
3285.06	-22.3929
3285.62	-22.458
3286.19	-22.4661
3286.75	-22.4499
3287.32	-22.3875
3287.88	-22.3159
3288.45	-22.1351
3289.01	-21.9442
3289.58	-21.9601
3290.14	-22.0063
3290.71	-22.2327
3291.27	-22.1582
3291.83	-21.9409
3292.4	-21.6099
3292.96	-21.1176
3293.52	-20.4001
3294.09	-19.8622
3294.65	-19.1837
3295.21	-18.5467
3295.78	-17.9221
3296.34	-17.3848
3296.9	-16.8919
3297.46	-16.5667
3298.03	-16.339
3298.59	-16.1508
3299.15	-16.1708
3299.71	-16.4582
3300.28	-16.9016
3300.84	-17.6126
3301.4	-18.1268
3301.96	-18.6407
3302.52	-19.0043
3303.08	-18.8697
3303.64	-18.9676
3304.2	-19.1427
3304.76	-19.536
3305.32	-19.5859
3305.88	-19.6137
3306.44	-19.6363
3307	-19.5408
3307.56	-19.7277
3308.12	-20.0253
3308.68	-20.2563
3309.24	-20.4725
3309.8	-20.7006
3310.36	-20.8374
3310.92	-20.9488
3311.48	-21.0629
3312.04	-21.148
3312.59	-20.8099
3313.15	-20.3865
3313.71	-19.8924
3314.27	-19.3537
3314.83	-18.8114
3315.38	-18.3038
3315.94	-17.7778
3316.5	-17.321
3317.06	-16.8452
3317.61	-16.4869
3318.17	-16.4042
3318.73	-16.2972
3319.28	-16.2417
3319.84	-16.3428
3320.4	-16.403
3320.95	-16.4665
3321.51	-16.594
3322.07	-16.7193
3322.62	-16.8323
3323.18	-16.9557
3323.73	-17.0645
3324.29	-17.2343
3324.84	-17.2499
3325.4	-17.1821
3325.95	-17.337
3326.51	-17.5501
3327.06	-17.7626
3327.61	-18.0524
3328.17	-18.378
3328.72	-18.6572
3329.28	-18.9305
3329.83	-19.2101
3330.39	-19.51
3330.94	-19.7969
3331.49	-20.0926
3332.04	-20.3793
3332.6	-20.6539
3333.15	-20.8956
3333.7	-20.9966
3334.26	-21.2375
3334.81	-21.3927
3335.36	-21.5047
3335.91	-21.8358
3336.46	-22.136
3337.02	-22.426
3337.57	-22.7369
3338.12	-22.76
3338.67	-22.5883
3339.22	-22.0977
3339.77	-20.7908
3340.32	-19.6609
3340.87	-18.5352
3341.43	-17.5023
3341.98	-16.8134
3342.53	-16.2764
3343.08	-15.9136
3343.63	-15.7607
3344.18	-16.0885
3344.73	-16.9283
3345.28	-17.902
3345.83	-18.9372
3346.37	-20.1472
3346.92	-20.8547
3347.47	-20.8411
3348.02	-20.9883
3348.57	-20.9865
3349.12	-20.9555
3349.67	-20.9234
3350.22	-21.0246
3350.76	-20.9595
3351.31	-21.2958
3351.86	-21.6094
3352.41	-21.9571
3352.95	-22.2603
3353.5	-22.5923
3354.05	-22.8488
3354.6	-23.0223
3355.14	-23.163
3355.69	-23.072
3356.24	-22.8028
3356.78	-22.4574
3357.33	-22.0249
3357.87	-21.5567
3358.42	-21.0848
3358.97	-20.5327
3359.51	-20.1905
3360.06	-20.0991
3360.6	-19.9478
3361.15	-19.8418
3361.69	-19.6673
3362.24	-19.6507
3362.78	-19.1387
3363.33	-18.2624
3363.87	-17.4613
3364.42	-17.0628
3364.96	-16.6339
3365.5	-16.6334
3366.05	-17.2152
3366.59	-17.731
3367.14	-18.217
3367.68	-18.7663
3368.22	-19.2387
3368.76	-19.6995
3369.31	-19.8774
3369.85	-19.9588
3370.39	-20.0538
3370.94	-19.7834
3371.48	-19.2041
3372.02	-18.396
3372.56	-17.606
3373.1	-16.7532
3373.65	-16.0978
3374.19	-16.3174
3374.73	-16.529
3375.27	-17.3954
3375.81	-18.3805
3376.35	-19.3835
3376.89	-20.3112
3377.44	-20.61
3377.97	-20.7226
3378.52	-20.5227
3379.06	-20.0421
3379.6	-19.4687
3380.14	-18.8235
3380.68	-18.1881
3381.22	-17.4116
3381.75	-16.9173
3382.29	-16.224
3382.83	-15.4684
3383.37	-14.9065
3383.91	-15.1614
3384.45	-18.0729
3384.99	-18.694
3385.53	-19.283
3386.07	-19.5668
3386.6	-19.7668
3387.14	-19.532
3387.68	-19.2071
3388.22	-18.8363
3388.76	-18.4358
3389.29	-18.044
3389.83	-17.638
3390.37	-17.2889
3390.9	-16.9191
3391.44	-16.6191
3391.98	-16.314
3392.51	-16.0922
3393.05	-15.903
3393.59	-15.7909
3394.12	-15.7714
3394.66	-15.7671
3395.19	-15.8488
3395.73	-16.0009
3396.27	-16.1002
3396.8	-16.2517
3397.34	-16.4163
3397.87	-16.6086
3398.41	-16.9388
3398.94	-17.4484
3399.48	-20.5266
